# Te = 30     Ne =  2e-03
#   Spectrum    CRETIN_LA2
#  CRETIN_LA2
      5.000000      3.740e+16
      5.010000      3.730e+16
      5.020000      3.746e+16
      5.030000      3.754e+16
      5.040000      3.751e+16
      5.050000      3.760e+16
      5.060000      3.735e+16
      5.070000      3.744e+16
      5.080000      3.744e+16
      5.090000      3.746e+16
      5.100000      3.728e+16
      5.110000      3.738e+16
      5.120000      3.730e+16
      5.130000      3.733e+16
      5.140000      3.730e+16
      5.150000      3.713e+16
      5.160000      3.707e+16
      5.170000      3.707e+16
      5.180000      3.685e+16
      5.190000      3.669e+16
      5.200000      3.672e+16
      5.210000      3.666e+16
      5.220000      3.624e+16
      5.228370      3.619e+16
      5.230000      3.619e+16
      5.240000      3.621e+16
      5.250000      3.571e+16
      5.260000      3.579e+16
      5.270000      3.525e+16
      5.280000      3.538e+16
      5.290000      3.533e+16
      5.300000      3.427e+16
      5.310000      3.450e+16
      5.320000      3.430e+16
      5.330000      3.382e+16
      5.340000      3.363e+16
      5.350000      3.386e+16
      5.360000      3.318e+16
      5.370000      3.320e+16
      5.380000      3.234e+16
      5.390000      3.239e+16
      5.400000      3.252e+16
      5.410000      3.168e+16
      5.420000      3.149e+16
      5.430000      3.125e+16
      5.440000      3.006e+16
      5.450000      2.953e+16
      5.460000      2.920e+16
      5.470000      2.879e+16
      5.480000      2.863e+16
      5.490000      2.843e+16
      5.500000      2.808e+16
      5.510000      2.836e+16
      5.520000      2.863e+16
      5.530000      2.864e+16
      5.538171      2.885e+16
      5.540000      3.049e+16
      5.550000      3.240e+16
      5.560000      3.430e+16
      5.570000      3.473e+16
      5.580000      3.670e+16
      5.590000      3.685e+16
      5.600000      3.621e+16
      5.610000      3.806e+16
      5.620000      3.928e+16
      5.630000      4.258e+16
      5.640000      4.478e+16
      5.650000      4.077e+16
      5.660000      3.773e+16
      5.670000      3.546e+16
      5.680000      3.353e+16
      5.690000      3.179e+16
      5.700000      2.871e+16
      5.710000      2.874e+16
      5.720000      3.104e+16
      5.730000      3.280e+16
      5.740000      3.306e+16
      5.750000      3.376e+16
      5.760000      3.518e+16
      5.770000      3.516e+16
      5.780000      3.645e+16
      5.790000      3.645e+16
      5.800000      3.487e+16
      5.810000      3.612e+16
      5.820000      3.829e+16
      5.830000      3.947e+16
      5.840000      4.002e+16
      5.850000      3.929e+16
      5.860000      3.671e+16
      5.866328      3.446e+16
      5.870000      3.302e+16
      5.880000      3.350e+16
      5.890000      3.413e+16
      5.900000      3.464e+16
      5.910000      3.375e+16
      5.920000      3.195e+16
      5.930000      3.034e+16
      5.940000      2.886e+16
      5.950000      2.751e+16
      5.960000      2.649e+16
      5.970000      2.633e+16
      5.980000      2.709e+16
      5.990000      2.984e+16
      6.000000      3.022e+16
      6.010000      3.092e+16
      6.020000      3.364e+16
      6.030000      3.476e+16
      6.040000      3.516e+16
      6.050000      3.470e+16
      6.060000      3.955e+16
      6.070000      4.208e+16
      6.080000      4.007e+16
      6.090000      3.819e+16
      6.100000      3.632e+16
      6.110000      3.239e+16
      6.120000      2.707e+16
      6.130000      2.478e+16
      6.140000      2.488e+16
      6.150000      2.618e+16
      6.160000      2.580e+16
      6.170000      2.307e+16
      6.180000      2.168e+16
      6.190000      2.184e+16
      6.200000      2.056e+16
      6.210000      1.957e+16
      6.213930      1.938e+16
      6.220000      1.940e+16
      6.230000      2.114e+16
      6.240000      2.145e+16
      6.250000      2.005e+16
      6.260000      2.106e+16
      6.270000      2.152e+16
      6.280000      2.153e+16
      6.290000      2.607e+16
      6.300000      2.901e+16
      6.310000      2.876e+16
      6.320000      3.047e+16
      6.330000      3.142e+16
      6.340000      3.334e+16
      6.350000      3.521e+16
      6.360000      3.738e+16
      6.370000      4.061e+16
      6.380000      3.905e+16
      6.390000      3.411e+16
      6.400000      3.072e+16
      6.410000      2.920e+16
      6.420000      2.861e+16
      6.430000      2.671e+16
      6.440000      2.487e+16
      6.450000      2.471e+16
      6.460000      2.327e+16
      6.470000      2.094e+16
      6.480000      1.946e+16
      6.490000      1.894e+16
      6.500000      1.842e+16
      6.510000      1.793e+16
      6.520000      1.773e+16
      6.530000      1.801e+16
      6.540000      1.814e+16
      6.550000      1.776e+16
      6.560000      1.768e+16
      6.570000      1.785e+16
      6.580000      1.790e+16
      6.582128      1.776e+16
      6.590000      1.800e+16
      6.600000      1.832e+16
      6.610000      1.858e+16
      6.620000      1.878e+16
      6.630000      1.912e+16
      6.640000      1.967e+16
      6.650000      2.042e+16
      6.660000      2.091e+16
      6.670000      2.119e+16
      6.680000      2.180e+16
      6.690000      2.276e+16
      6.700000      2.410e+16
      6.710000      2.527e+16
      6.720000      2.509e+16
      6.730000      2.434e+16
      6.740000      2.376e+16
      6.750000      2.334e+16
      6.760000      2.311e+16
      6.770000      2.309e+16
      6.780000      2.343e+16
      6.790000      2.308e+16
      6.800000      2.232e+16
      6.810000      2.213e+16
      6.820000      2.222e+16
      6.830000      2.262e+16
      6.840000      2.302e+16
      6.850000      2.338e+16
      6.860000      2.352e+16
      6.870000      2.354e+16
      6.880000      2.379e+16
      6.890000      2.390e+16
      6.900000      2.442e+16
      6.910000      2.486e+16
      6.920000      2.488e+16
      6.930000      2.484e+16
      6.940000      2.510e+16
      6.950000      2.552e+16
      6.960000      2.575e+16
      6.970000      2.564e+16
      6.972144      2.541e+16
      6.980000      2.552e+16
      6.990000      2.572e+16
      7.000000      2.638e+16
      7.010000      2.675e+16
      7.020000      2.733e+16
      7.030000      2.822e+16
      7.040000      2.891e+16
      7.050000      2.991e+16
      7.060000      3.156e+16
      7.070000      3.441e+16
      7.080000      3.910e+16
      7.090000      4.305e+16
      7.100000      4.328e+16
      7.110000      4.271e+16
      7.120000      4.512e+16
      7.130000      5.028e+16
      7.140000      5.092e+16
      7.150000      4.710e+16
      7.160000      4.529e+16
      7.170000      4.548e+16
      7.180000      4.564e+16
      7.190000      5.134e+16
      7.200000      5.269e+16
      7.210000      4.695e+16
      7.220000      4.508e+16
      7.230000      4.530e+16
      7.240000      4.838e+16
      7.250000      5.206e+16
      7.260000      5.258e+16
      7.270000      4.906e+16
      7.280000      4.553e+16
      7.290000      4.416e+16
      7.300000      4.458e+16
      7.310000      4.574e+16
      7.320000      4.748e+16
      7.330000      4.896e+16
      7.340000      5.015e+16
      7.350000      5.329e+16
      7.360000      5.644e+16
      7.370000      5.828e+16
      7.380000      6.022e+16
      7.385269      6.168e+16
      7.390000      6.321e+16
      7.400000      6.577e+16
      7.410000      6.920e+16
      7.420000      7.262e+16
      7.430000      7.656e+16
      7.440000      8.096e+16
      7.450000      8.414e+16
      7.460000      8.593e+16
      7.470000      1.231e+17
      7.480000      1.247e+17
      7.490000      9.049e+16
      7.500000      9.254e+16
      7.510000      9.347e+16
      7.520000      9.232e+16
      7.530000      9.128e+16
      7.540000      9.019e+16
      7.550000      9.017e+16
      7.560000      9.038e+16
      7.570000      9.041e+16
      7.580000      9.114e+16
      7.590000      1.013e+17
      7.600000      1.001e+17
      7.610000      8.790e+16
      7.620000      8.568e+16
      7.630000      8.332e+16
      7.640000      8.082e+16
      7.650000      7.836e+16
      7.660000      7.665e+16
      7.670000      7.607e+16
      7.680000      7.604e+16
      7.690000      7.782e+16
      7.700000      8.162e+16
      7.710000      8.559e+16
      7.720000      8.866e+16
      7.730000      9.388e+16
      7.740000      1.002e+17
      7.750000      1.066e+17
      7.760000      1.150e+17
      7.770000      1.232e+17
      7.780000      1.358e+17
      7.790000      1.493e+17
      7.800000      1.680e+17
      7.810000      2.034e+17
      7.820000      2.292e+17
      7.822874      2.498e+17
      7.830000      2.603e+17
      7.840000      2.710e+17
      7.850000      2.786e+17
      7.860000      2.806e+17
      7.870000      2.724e+17
      7.880000      2.590e+17
      7.890000      2.555e+17
      7.900000      2.591e+17
      7.910000      2.761e+17
      7.920000      2.702e+17
      7.930000      2.252e+17
      7.940000      2.006e+17
      7.950000      2.058e+17
      7.960000      2.136e+17
      7.970000      2.033e+17
      7.980000      1.809e+17
      7.990000      1.645e+17
      8.000000      1.590e+17
      8.010000      1.650e+17
      8.020000      1.785e+17
      8.030000      1.777e+17
      8.040000      1.624e+17
      8.050000      1.513e+17
      8.060000      1.485e+17
      8.070000      1.503e+17
      8.080000      1.554e+17
      8.090000      1.593e+17
      8.100000      1.575e+17
      8.110000      1.544e+17
      8.120000      1.554e+17
      8.130000      1.656e+17
      8.140000      1.700e+17
      8.150000      1.724e+17
      8.160000      1.901e+17
      8.170000      2.025e+17
      8.180000      2.116e+17
      8.190000      2.208e+17
      8.200000      2.230e+17
      8.210000      2.259e+17
      8.220000      2.345e+17
      8.230000      2.551e+17
      8.240000      2.618e+17
      8.250000      2.600e+17
      8.260000      2.715e+17
      8.270000      2.860e+17
      8.280000      3.009e+17
      8.286408      3.111e+17
      8.290000      3.205e+17
      8.300000      3.728e+17
      8.310000      3.900e+17
      8.320000      3.527e+17
      8.330000      3.328e+17
      8.340000      3.108e+17
      8.350000      2.948e+17
      8.360000      2.823e+17
      8.370000      2.778e+17
      8.380000      2.877e+17
      8.390000      3.186e+17
      8.400000      3.622e+17
      8.410000      3.659e+17
      8.420000      3.228e+17
      8.430000      2.830e+17
      8.440000      2.653e+17
      8.450000      2.714e+17
      8.460000      2.729e+17
      8.470000      2.579e+17
      8.480000      2.431e+17
      8.490000      2.238e+17
      8.500000      2.483e+17
      8.510000      2.400e+17
      8.520000      1.879e+17
      8.530000      1.767e+17
      8.540000      1.646e+17
      8.550000      1.506e+17
      8.560000      1.386e+17
      8.570000      1.336e+17
      8.580000      1.311e+17
      8.590000      1.260e+17
      8.600000      1.232e+17
      8.610000      1.246e+17
      8.620000      1.232e+17
      8.630000      1.214e+17
      8.640000      1.254e+17
      8.650000      1.313e+17
      8.660000      1.356e+17
      8.670000      1.385e+17
      8.680000      1.407e+17
      8.690000      1.421e+17
      8.700000      1.446e+17
      8.710000      1.502e+17
      8.720000      1.567e+17
      8.730000      1.638e+17
      8.740000      1.694e+17
      8.750000      1.733e+17
      8.760000      1.744e+17
      8.770000      1.718e+17
      8.777409      1.714e+17
      8.780000      1.752e+17
      8.790000      1.792e+17
      8.800000      1.795e+17
      8.810000      1.771e+17
      8.820000      1.785e+17
      8.830000      1.803e+17
      8.840000      1.823e+17
      8.850000      1.853e+17
      8.860000      1.871e+17
      8.870000      1.857e+17
      8.880000      1.860e+17
      8.890000      1.854e+17
      8.900000      1.824e+17
      8.910000      1.784e+17
      8.920000      1.702e+17
      8.930000      1.592e+17
      8.940000      1.463e+17
      8.950000      1.337e+17
      8.960000      1.225e+17
      8.970000      1.122e+17
      8.980000      1.038e+17
      8.990000      9.696e+16
      9.000000      9.078e+16
      9.010000      8.445e+16
      9.020000      7.778e+16
      9.030000      7.200e+16
      9.040000      6.722e+16
      9.050000      6.255e+16
      9.060000      5.998e+16
      9.070000      5.795e+16
      9.080000      5.397e+16
      9.090000      5.044e+16
      9.100000      4.700e+16
      9.110000      4.375e+16
      9.120000      4.182e+16
      9.130000      4.062e+16
      9.140000      3.988e+16
      9.150000      3.993e+16
      9.160000      4.092e+16
      9.170000      4.050e+16
      9.180000      3.871e+16
      9.190000      3.793e+16
      9.200000      3.867e+16
      9.210000      3.852e+16
      9.220000      3.814e+16
      9.230000      3.863e+16
      9.240000      3.973e+16
      9.250000      4.119e+16
      9.260000      4.192e+16
      9.270000      4.276e+16
      9.280000      4.255e+16
      9.290000      4.238e+16
      9.297503      4.356e+16
      9.300000      4.304e+16
      9.310000      4.271e+16
      9.320000      4.294e+16
      9.330000      4.325e+16
      9.340000      4.349e+16
      9.350000      4.318e+16
      9.360000      4.226e+16
      9.370000      4.128e+16
      9.380000      4.077e+16
      9.390000      4.073e+16
      9.400000      4.033e+16
      9.410000      3.906e+16
      9.420000      3.803e+16
      9.430000      3.738e+16
      9.440000      3.693e+16
      9.450000      3.559e+16
      9.460000      3.357e+16
      9.470000      3.219e+16
      9.480000      3.094e+16
      9.490000      3.005e+16
      9.500000      2.884e+16
      9.510000      2.724e+16
      9.520000      2.626e+16
      9.530000      2.543e+16
      9.540000      2.429e+16
      9.550000      2.345e+16
      9.560000      2.241e+16
      9.570000      2.139e+16
      9.580000      2.045e+16
      9.590000      1.879e+16
      9.600000      1.724e+16
      9.610000      1.606e+16
      9.620000      1.503e+16
      9.630000      1.438e+16
      9.640000      1.402e+16
      9.650000      1.371e+16
      9.660000      1.324e+16
      9.670000      1.288e+16
      9.680000      1.276e+16
      9.690000      1.268e+16
      9.700000      1.277e+16
      9.710000      1.283e+16
      9.720000      1.243e+16
      9.730000      1.190e+16
      9.740000      1.168e+16
      9.750000      1.148e+16
      9.760000      1.133e+16
      9.770000      1.173e+16
      9.780000      1.180e+16
      9.790000      1.118e+16
      9.800000      1.084e+16
      9.810000      1.074e+16
      9.820000      1.076e+16
      9.830000      1.106e+16
      9.840000      1.124e+16
      9.848415      1.124e+16
      9.850000      1.131e+16
      9.860000      1.106e+16
      9.870000      1.096e+16
      9.880000      1.072e+16
      9.890000      1.031e+16
      9.900000      1.036e+16
      9.910000      1.067e+16
      9.920000      1.111e+16
      9.930000      1.125e+16
      9.940000      1.085e+16
      9.950000      1.051e+16
      9.960000      1.043e+16
      9.970000      1.045e+16
      9.980000      1.045e+16
      9.990000      1.065e+16
     10.000000      1.086e+16
     10.010000      1.069e+16
     10.020000      1.051e+16
     10.030000      1.035e+16
     10.040000      1.030e+16
     10.050000      1.013e+16
     10.060000      9.755e+15
     10.070000      9.766e+15
     10.080000      9.640e+15
     10.090000      9.474e+15
     10.100000      9.480e+15
     10.110000      9.458e+15
     10.120000      9.548e+15
     10.130000      9.590e+15
     10.140000      9.588e+15
     10.150000      9.449e+15
     10.160000      9.376e+15
     10.170000      9.495e+15
     10.180000      9.609e+15
     10.190000      9.864e+15
     10.200000      1.025e+16
     10.210000      1.042e+16
     10.220000      1.037e+16
     10.230000      1.037e+16
     10.240000      1.039e+16
     10.250000      1.048e+16
     10.260000      1.105e+16
     10.270000      1.137e+16
     10.280000      1.135e+16
     10.290000      1.158e+16
     10.300000      1.161e+16
     10.310000      1.158e+16
     10.320000      1.139e+16
     10.330000      1.090e+16
     10.340000      1.071e+16
     10.350000      1.074e+16
     10.360000      1.084e+16
     10.370000      1.103e+16
     10.380000      1.126e+16
     10.390000      1.144e+16
     10.400000      1.133e+16
     10.410000      1.112e+16
     10.420000      1.116e+16
     10.430000      1.116e+16
     10.431970      1.120e+16
     10.440000      1.270e+16
     10.450000      1.263e+16
     10.460000      1.155e+16
     10.470000      1.166e+16
     10.480000      1.168e+16
     10.490000      1.166e+16
     10.500000      1.166e+16
     10.510000      1.187e+16
     10.520000      1.191e+16
     10.530000      1.186e+16
     10.540000      1.209e+16
     10.550000      1.212e+16
     10.560000      1.201e+16
     10.570000      1.227e+16
     10.580000      1.238e+16
     10.590000      1.232e+16
     10.600000      1.254e+16
     10.610000      1.314e+16
     10.620000      1.336e+16
     10.630000      1.329e+16
     10.640000      1.316e+16
     10.650000      1.291e+16
     10.660000      1.295e+16
     10.670000      1.304e+16
     10.680000      1.321e+16
     10.690000      1.347e+16
     10.700000      1.445e+16
     10.710000      1.481e+16
     10.720000      1.434e+16
     10.730000      1.436e+16
     10.740000      1.446e+16
     10.750000      1.462e+16
     10.760000      1.478e+16
     10.770000      1.493e+16
     10.780000      1.519e+16
     10.790000      1.558e+16
     10.800000      1.575e+16
     10.810000      1.571e+16
     10.820000      1.649e+16
     10.830000      1.687e+16
     10.840000      1.711e+16
     10.850000      1.695e+16
     10.860000      1.644e+16
     10.870000      1.764e+16
     10.880000      1.862e+16
     10.890000      1.788e+16
     10.900000      1.736e+16
     10.910000      1.785e+16
     10.920000      1.802e+16
     10.930000      1.806e+16
     10.940000      1.858e+16
     10.950000      2.021e+16
     10.960000      2.354e+16
     10.970000      2.263e+16
     10.980000      1.976e+16
     10.990000      1.973e+16
     11.000000      1.977e+16
     11.010000      2.022e+16
     11.020000      2.067e+16
     11.030000      2.134e+16
     11.040000      2.210e+16
     11.050000      2.236e+16
     11.050100      2.300e+16
     11.060000      2.546e+16
     11.070000      2.556e+16
     11.080000      2.272e+16
     11.090000      2.304e+16
     11.100000      2.370e+16
     11.110000      2.337e+16
     11.120000      2.349e+16
     11.130000      2.400e+16
     11.140000      2.640e+16
     11.150000      2.686e+16
     11.160000      2.510e+16
     11.170000      2.525e+16
     11.180000      2.545e+16
     11.190000      2.582e+16
     11.200000      2.643e+16
     11.210000      2.900e+16
     11.220000      2.910e+16
     11.230000      2.741e+16
     11.240000      2.894e+16
     11.250000      2.975e+16
     11.260000      2.956e+16
     11.270000      2.991e+16
     11.280000      3.034e+16
     11.290000      3.072e+16
     11.300000      3.147e+16
     11.310000      3.219e+16
     11.320000      3.258e+16
     11.330000      3.313e+16
     11.340000      3.398e+16
     11.350000      3.462e+16
     11.360000      3.533e+16
     11.370000      3.620e+16
     11.380000      3.685e+16
     11.390000      3.756e+16
     11.400000      3.842e+16
     11.410000      4.013e+16
     11.420000      4.142e+16
     11.430000      4.204e+16
     11.440000      4.312e+16
     11.450000      4.368e+16
     11.460000      4.422e+16
     11.470000      4.519e+16
     11.480000      4.623e+16
     11.490000      4.769e+16
     11.500000      4.931e+16
     11.510000      5.133e+16
     11.520000      5.368e+16
     11.530000      6.241e+16
     11.540000      6.384e+16
     11.550000      5.770e+16
     11.560000      5.838e+16
     11.570000      6.014e+16
     11.580000      6.218e+16
     11.590000      6.365e+16
     11.600000      6.528e+16
     11.610000      6.744e+16
     11.620000      6.874e+16
     11.630000      6.965e+16
     11.640000      7.088e+16
     11.650000      7.266e+16
     11.660000      7.483e+16
     11.670000      7.657e+16
     11.680000      7.830e+16
     11.690000      7.947e+16
     11.700000      7.985e+16
     11.704860      8.053e+16
     11.710000      8.197e+16
     11.720000      8.461e+16
     11.730000      8.590e+16
     11.740000      8.676e+16
     11.750000      8.993e+16
     11.760000      9.260e+16
     11.770000      9.482e+16
     11.780000      9.542e+16
     11.790000      9.624e+16
     11.800000      9.831e+16
     11.810000      1.007e+17
     11.820000      1.032e+17
     11.830000      1.053e+17
     11.840000      1.073e+17
     11.850000      1.103e+17
     11.860000      1.132e+17
     11.870000      1.157e+17
     11.880000      1.185e+17
     11.890000      1.220e+17
     11.900000      1.263e+17
     11.910000      1.296e+17
     11.920000      1.332e+17
     11.930000      1.360e+17
     11.940000      1.373e+17
     11.950000      1.397e+17
     11.960000      1.448e+17
     11.970000      1.480e+17
     11.980000      1.488e+17
     11.990000      1.520e+17
     12.000000      1.562e+17
     12.010000      1.625e+17
     12.020000      1.664e+17
     12.030000      1.683e+17
     12.040000      1.737e+17
     12.050000      1.808e+17
     12.060000      1.866e+17
     12.070000      1.909e+17
     12.080000      1.971e+17
     12.090000      2.031e+17
     12.100000      2.087e+17
     12.110000      2.165e+17
     12.120000      2.238e+17
     12.130000      2.414e+17
     12.140000      2.518e+17
     12.150000      2.505e+17
     12.160000      2.552e+17
     12.170000      2.613e+17
     12.180000      2.709e+17
     12.190000      2.814e+17
     12.200000      2.926e+17
     12.210000      3.048e+17
     12.220000      3.166e+17
     12.230000      3.293e+17
     12.240000      3.412e+17
     12.250000      3.536e+17
     12.260000      3.688e+17
     12.270000      3.830e+17
     12.280000      4.004e+17
     12.290000      4.418e+17
     12.300000      4.574e+17
     12.310000      4.507e+17
     12.320000      4.674e+17
     12.330000      4.868e+17
     12.340000      5.106e+17
     12.350000      5.357e+17
     12.360000      5.595e+17
     12.370000      5.893e+17
     12.380000      6.154e+17
     12.390000      6.351e+17
     12.398420      6.514e+17
     12.400000      6.817e+17
     12.410000      7.070e+17
     12.420000      7.482e+17
     12.430000      7.859e+17
     12.440000      8.276e+17
     12.450000      8.715e+17
     12.460000      9.208e+17
     12.470000      9.813e+17
     12.480000      1.050e+18
     12.490000      1.103e+18
     12.500000      1.145e+18
     12.510000      1.194e+18
     12.520000      1.237e+18
     12.530000      1.287e+18
     12.540000      1.350e+18
     12.550000      1.418e+18
     12.560000      1.507e+18
     12.570000      1.585e+18
     12.580000      1.670e+18
     12.590000      1.767e+18
     12.600000      1.843e+18
     12.610000      1.934e+18
     12.620000      2.034e+18
     12.630000      2.129e+18
     12.640000      2.219e+18
     12.650000      2.314e+18
     12.660000      2.417e+18
     12.670000      2.532e+18
     12.680000      2.656e+18
     12.690000      2.792e+18
     12.700000      2.951e+18
     12.710000      3.085e+18
     12.720000      3.197e+18
     12.730000      3.287e+18
     12.740000      3.347e+18
     12.750000      3.466e+18
     12.760000      3.654e+18
     12.770000      3.736e+18
     12.780000      3.753e+18
     12.790000      3.880e+18
     12.800000      4.010e+18
     12.810000      4.135e+18
     12.820000      4.364e+18
     12.830000      4.454e+18
     12.840000      4.458e+18
     12.850000      4.607e+18
     12.860000      4.756e+18
     12.870000      4.871e+18
     12.880000      4.999e+18
     12.890000      5.167e+18
     12.900000      5.380e+18
     12.910000      5.516e+18
     12.920000      5.627e+18
     12.930000      5.901e+18
     12.940000      6.288e+18
     12.950000      6.389e+18
     12.960000      6.310e+18
     12.970000      6.372e+18
     12.980000      6.458e+18
     12.990000      6.595e+18
     13.000000      6.796e+18
     13.010000      7.180e+18
     13.020000      7.486e+18
     13.030000      7.436e+18
     13.040000      7.395e+18
     13.050000      7.529e+18
     13.060000      7.777e+18
     13.070000      7.888e+18
     13.080000      7.893e+18
     13.090000      8.051e+18
     13.100000      8.148e+18
     13.110000      8.176e+18
     13.120000      8.284e+18
     13.130000      8.387e+18
     13.133070      8.463e+18
     13.140000      8.489e+18
     13.150000      8.516e+18    8.607e+18
     13.153520      8.696e+18
     13.157040      8.813e+18
     13.160000      8.826e+18
     13.160550      8.752e+18
     13.164070      8.775e+18
     13.167590      8.804e+18
     13.170000      8.818e+18
     13.171110      8.836e+18
     13.174620      8.857e+18
     13.178140      8.890e+18
     13.180000      8.946e+18
     13.181660      9.420e+18
     13.185180      9.566e+18
     13.188690      9.389e+18
     13.190000      9.072e+18
     13.192210      9.072e+18
     13.195730      9.100e+18
     13.199250      9.133e+18
     13.200000      9.211e+18
     13.202760      9.218e+18
     13.206280      9.224e+18
     13.209800      9.230e+18
     13.210000      9.264e+18
     13.213320      9.286e+18
     13.216830      9.331e+18
     13.220000      9.360e+18
     13.220350      9.425e+18
     13.223870      9.472e+18
     13.227390      9.575e+18
     13.230000      9.686e+18
     13.230900      1.014e+19
     13.234420      1.314e+19
     13.237940      1.744e+19
     13.240000      1.661e+19
     13.241460      1.088e+19
     13.244970      1.014e+19
     13.248490      9.857e+18
     13.250000      9.745e+18
     13.252010      9.709e+18
     13.255530      9.716e+18
     13.259050      9.746e+18
     13.260000      9.905e+18
     13.262560      1.014e+19
     13.266080      1.032e+19
     13.269600      1.031e+19
     13.270000      9.949e+18
     13.273120      9.838e+18
     13.276630      9.742e+18
     13.280000      9.724e+18
     13.280150      9.766e+18
     13.283670      9.875e+18
     13.287190      1.012e+19
     13.290000      1.046e+19
     13.290700      1.623e+19
     13.294220      1.619e+19
     13.297740      1.327e+19
     13.300000      1.031e+19
     13.301260      1.020e+19
     13.304770      1.091e+19
     13.308290      1.147e+19
     13.310000      1.069e+19
     13.311810      1.023e+19
     13.315330      1.016e+19
     13.318840      1.007e+19
     13.320000      1.000e+19
     13.322360      9.990e+18
     13.325880      1.022e+19
     13.329400      1.046e+19
     13.330000      1.020e+19
     13.332910      9.918e+18
     13.336430      9.718e+18
     13.339950      9.675e+18
     13.340000      9.663e+18
     13.343470      9.665e+18
     13.346980      9.702e+18
     13.350000      9.751e+18
     13.350500      9.805e+18
     13.354020      9.764e+18
     13.357540      9.728e+18
     13.360000      9.737e+18
     13.361060      9.827e+18
     13.364570      9.958e+18
     13.368090      1.031e+19
     13.370000      1.185e+19
     13.371610      2.079e+19
     13.375130      1.949e+19
     13.378640      1.406e+19
     13.380000      1.156e+19
     13.382160      1.046e+19
     13.385680      1.000e+19
     13.389200      9.906e+18
     13.390000      1.008e+19
     13.392710      1.179e+19
     13.396230      1.848e+19
     13.399750      2.305e+19
     13.400000      1.053e+19
     13.403270      1.028e+19
     13.406780      1.013e+19
     13.410000      1.016e+19
     13.410300      1.033e+19
     13.413820      1.046e+19
     13.417340      1.070e+19
     13.420000      1.088e+19
     13.420850      1.119e+19
     13.424370      1.140e+19
     13.427890      1.168e+19
     13.430000      1.192e+19
     13.431410      1.214e+19
     13.434920      1.230e+19
     13.438440      1.247e+19
     13.440000      1.286e+19
     13.441960      1.297e+19
     13.445480      1.275e+19
     13.448990      1.278e+19
     13.450000      1.562e+19
     13.452510      1.598e+19
     13.456030      1.519e+19
     13.459550      1.440e+19
     13.460000      1.125e+19
     13.463070      1.097e+19
     13.466580      1.062e+19
     13.470000      1.045e+19
     13.470100      1.022e+19
     13.473620      1.014e+19
     13.477140      1.006e+19
     13.480000      1.005e+19
     13.480650      1.012e+19
     13.484170      1.024e+19
     13.487690      1.038e+19
     13.490000      1.044e+19
     13.491210      1.059e+19
     13.494720      1.071e+19
     13.498240      1.084e+19
     13.500000      1.091e+19
     13.501760      1.088e+19
     13.505280      1.076e+19
     13.508790      1.060e+19
     13.510000      1.029e+19
     13.512310      1.001e+19
     13.515830      9.661e+18
     13.519350      9.427e+18
     13.520000      9.171e+18
     13.522860      9.084e+18
     13.526380      8.831e+18
     13.529900      8.625e+18
     13.530000      8.380e+18
     13.533420      8.519e+18
     13.536930      9.693e+18
     13.540000      1.058e+19
     13.540450      8.290e+18
     13.543970      8.498e+18
     13.547490      8.463e+18
     13.550000      8.028e+18
     13.551010      7.880e+18
     13.554520      7.835e+18
     13.558040      7.792e+18
     13.560000      7.762e+18
     13.561560      7.738e+18
     13.565080      7.711e+18
     13.568590      7.676e+18
     13.570000      7.609e+18
     13.572110      7.519e+18
     13.575630      7.388e+18
     13.579150      7.273e+18
     13.580000      7.089e+18
     13.582660      6.948e+18
     13.586180      6.753e+18
     13.589700      6.633e+18
     13.590000      6.446e+18
     13.593220      6.348e+18
     13.596730      6.194e+18
     13.600000      6.108e+18
     13.600250      5.974e+18
     13.603770      5.905e+18
     13.607290      5.797e+18
     13.610000      5.728e+18
     13.610800      5.644e+18
     13.614320      5.605e+18
     13.617840      5.594e+18
     13.620000      5.642e+18
     13.621360      5.555e+18
     13.624870      5.391e+18
     13.628390      5.242e+18
     13.630000      5.151e+18
     13.631910      5.213e+18
     13.635430      5.416e+18
     13.638940      5.431e+18
     13.640000      4.992e+18
     13.642460      5.017e+18
     13.645980      4.854e+18
     13.649500      4.675e+18
     13.650000      4.588e+18
     13.653020      4.541e+18
     13.656530      4.468e+18
     13.660000      4.425e+18
     13.660050      4.361e+18
     13.663570      4.331e+18
     13.667090      4.284e+18
     13.670000      4.258e+18
     13.670600      4.220e+18
     13.674120      4.187e+18
     13.677640      4.138e+18
     13.680000      4.103e+18
     13.681160      4.075e+18
     13.684670      4.009e+18
     13.688190      3.922e+18
     13.690000      3.852e+18
     13.691710      3.799e+18
     13.695230      3.754e+18
     13.698740      3.715e+18
     13.700000      3.672e+18
     13.702260      3.638e+18
     13.705780      3.600e+18
     13.709300      3.572e+18
     13.710000      3.534e+18
     13.712810      3.509e+18
     13.716330      3.474e+18
     13.719850      3.453e+18
     13.720000      3.416e+18
     13.723370      3.397e+18
     13.726880      3.364e+18
     13.730000      3.343e+18
     13.730400      3.316e+18
     13.733920      3.298e+18
     13.737440      3.268e+18
     13.740000      3.242e+18
     13.740950      3.210e+18
     13.744470      3.189e+18
     13.747990      3.164e+18
     13.750000      3.145e+18
     13.751510      3.133e+18
     13.755030      3.171e+18
     13.758540      3.520e+18
     13.760000      4.132e+18
     13.762060      3.951e+18
     13.765580      3.626e+18
     13.769100      3.287e+18
     13.770000      2.989e+18
     13.772610      2.946e+18
     13.776130      2.902e+18
     13.779650      2.878e+18
     13.780000      2.845e+18
     13.783170      2.825e+18
     13.786680      2.793e+18
     13.790000      2.774e+18
     13.790200      2.744e+18
     13.793720      2.726e+18
     13.797240      2.698e+18
     13.800000      2.679e+18
     13.800750      2.654e+18
     13.804270      2.641e+18
     13.807790      2.633e+18
     13.810000      2.631e+18
     13.811310      2.603e+18
     13.814820      2.565e+18
     13.818340      2.527e+18
     13.820000      2.501e+18
     13.821860      2.482e+18
     13.825380      2.457e+18
     13.828890      2.434e+18
     13.830000      2.408e+18
     13.832410      2.389e+18
     13.835930      2.365e+18
     13.839450      2.348e+18
     13.840000      2.327e+18
     13.842960      2.314e+18
     13.846480      2.293e+18
     13.850000      2.282e+18    2.257e+18
     13.860000      2.295e+18
     13.870000      2.255e+18
     13.880000      2.120e+18
     13.890000      2.009e+18
     13.900000      1.904e+18
     13.910000      1.852e+18
     13.911260      1.825e+18
     13.920000      1.770e+18
     13.930000      1.690e+18
     13.940000      1.626e+18
     13.950000      1.569e+18
     13.960000      1.518e+18
     13.970000      1.461e+18
     13.980000      1.396e+18
     13.990000      1.343e+18
     14.000000      1.295e+18
     14.010000      1.244e+18
     14.020000      1.199e+18
     14.030000      1.160e+18
     14.040000      1.123e+18
     14.050000      1.093e+18
     14.060000      1.080e+18
     14.070000      1.053e+18
     14.080000      1.024e+18
     14.090000      1.005e+18
     14.100000      9.821e+17
     14.110000      9.635e+17
     14.120000      9.486e+17
     14.130000      9.272e+17
     14.140000      9.022e+17
     14.150000      8.917e+17
     14.160000      8.688e+17
     14.170000      8.325e+17
     14.180000      8.067e+17
     14.190000      7.837e+17
     14.200000      7.621e+17
     14.210000      7.416e+17
     14.220000      7.244e+17
     14.230000      7.069e+17
     14.240000      6.892e+17
     14.250000      6.750e+17
     14.260000      6.608e+17
     14.270000      6.468e+17
     14.280000      6.383e+17
     14.290000      6.508e+17
     14.300000      6.500e+17
     14.310000      6.153e+17
     14.320000      6.010e+17
     14.330000      5.913e+17
     14.340000      5.732e+17
     14.350000      5.667e+17
     14.360000      5.629e+17
     14.370000      5.585e+17
     14.380000      5.535e+17
     14.390000      5.482e+17
     14.400000      5.448e+17
     14.410000      5.408e+17
     14.420000      5.347e+17
     14.430000      5.319e+17
     14.440000      5.274e+17
     14.450000      5.210e+17
     14.460000      5.153e+17
     14.470000      5.096e+17
     14.480000      5.037e+17
     14.490000      4.982e+17
     14.500000      4.910e+17
     14.510000      4.826e+17
     14.520000      4.746e+17
     14.530000      4.670e+17
     14.540000      4.589e+17
     14.550000      4.510e+17
     14.560000      4.439e+17
     14.570000      4.354e+17
     14.580000      4.257e+17
     14.590000      4.157e+17
     14.600000      4.069e+17
     14.610000      3.992e+17
     14.620000      3.921e+17
     14.630000      3.891e+17
     14.640000      3.988e+17
     14.650000      3.872e+17
     14.660000      3.606e+17
     14.670000      3.515e+17
     14.680000      3.531e+17
     14.690000      3.517e+17
     14.700000      3.355e+17
     14.710000      3.214e+17
     14.720000      3.158e+17
     14.730000      3.142e+17
     14.735550      3.139e+17
     14.740000      3.139e+17
     14.750000      3.079e+17
     14.760000      2.991e+17
     14.770000      2.902e+17
     14.780000      2.815e+17
     14.790000      2.751e+17
     14.800000      2.693e+17
     14.810000      2.656e+17
     14.820000      2.639e+17
     14.830000      2.623e+17
     14.840000      2.585e+17
     14.850000      2.558e+17
     14.860000      2.564e+17
     14.870000      2.544e+17
     14.880000      2.490e+17
     14.890000      2.458e+17
     14.900000      2.432e+17
     14.910000      2.406e+17
     14.920000      2.388e+17
     14.930000      2.373e+17
     14.940000      2.395e+17
     14.950000      2.404e+17
     14.960000      2.597e+17
     14.970000      2.589e+17
     14.980000      2.332e+17
     14.990000      2.300e+17
     15.000000      2.295e+17
     15.010000      2.262e+17
     15.020000      2.236e+17
     15.030000      2.229e+17
     15.040000      2.218e+17
     15.050000      2.203e+17
     15.060000      2.188e+17
     15.070000      2.247e+17
     15.080000      2.224e+17
     15.090000      2.141e+17
     15.100000      2.117e+17
     15.110000      2.084e+17
     15.120000      2.062e+17
     15.130000      2.109e+17
     15.140000      2.089e+17
     15.150000      1.999e+17
     15.160000      1.982e+17
     15.170000      1.971e+17
     15.180000      1.960e+17
     15.190000      1.954e+17
     15.200000      1.960e+17
     15.210000      1.931e+17
     15.220000      1.891e+17
     15.230000      1.893e+17
     15.240000      1.885e+17
     15.250000      1.864e+17
     15.260000      1.852e+17
     15.270000      1.841e+17
     15.280000      1.863e+17
     15.290000      1.858e+17
     15.300000      1.829e+17
     15.310000      1.827e+17
     15.320000      1.830e+17
     15.330000      1.832e+17
     15.340000      1.840e+17
     15.350000      1.840e+17
     15.360000      1.856e+17
     15.370000      2.026e+17
     15.380000      1.983e+17
     15.390000      2.437e+17
     15.400000      2.406e+17
     15.410000      1.727e+17
     15.420000      1.725e+17
     15.430000      1.690e+17
     15.440000      1.636e+17
     15.450000      1.606e+17
     15.460000      1.578e+17
     15.470000      1.570e+17
     15.480000      1.645e+17
     15.490000      1.703e+17
     15.500000      1.617e+17
     15.510000      1.603e+17
     15.520000      1.769e+17
     15.530000      1.890e+17
     15.540000      1.827e+17
     15.550000      1.676e+17
     15.560000      1.561e+17
     15.570000      1.617e+17
     15.580000      1.614e+17
     15.590000      1.519e+17
     15.600000      1.525e+17
     15.608690      1.530e+17
     15.610000      1.536e+17
     15.620000      1.562e+17
     15.630000      1.570e+17
     15.640000      1.698e+17
     15.650000      1.710e+17
     15.660000      1.569e+17
     15.670000      1.544e+17
     15.680000      1.582e+17
     15.690000      1.578e+17
     15.700000      1.516e+17
     15.710000      1.506e+17
     15.720000      1.495e+17
     15.730000      1.485e+17
     15.740000      1.475e+17
     15.750000      1.465e+17
     15.760000      1.452e+17
     15.770000      1.443e+17
     15.780000      1.442e+17
     15.790000      1.428e+17
     15.800000      1.414e+17
     15.810000      1.406e+17
     15.820000      1.394e+17
     15.830000      1.380e+17
     15.840000      1.366e+17
     15.850000      1.361e+17
     15.860000      1.362e+17
     15.870000      1.358e+17
     15.880000      1.414e+17
     15.890000      1.509e+17
     15.900000      1.421e+17
     15.910000      1.289e+17
     15.920000      1.276e+17
     15.930000      1.271e+17
     15.940000      1.257e+17
     15.950000      1.240e+17
     15.960000      1.252e+17
     15.970000      1.244e+17
     15.980000      1.216e+17
     15.990000      1.206e+17
     16.000000      1.198e+17
     16.010000      1.198e+17
     16.020000      1.201e+17
     16.030000      1.381e+17
     16.040000      1.371e+17
     16.050000      1.172e+17
     16.060000      1.169e+17
     16.070000      1.171e+17
     16.080000      1.153e+17
     16.090000      1.143e+17
     16.100000      1.123e+17
     16.110000      1.093e+17
     16.120000      1.078e+17
     16.130000      1.095e+17
     16.140000      1.085e+17
     16.150000      1.042e+17
     16.160000      1.030e+17
     16.170000      1.039e+17
     16.180000      1.024e+17
     16.190000      9.814e+16
     16.200000      9.561e+16
     16.210000      9.527e+16
     16.220000      9.397e+16
     16.230000      9.141e+16
     16.240000      8.984e+16
     16.250000      8.838e+16
     16.260000      8.774e+16
     16.270000      8.868e+16
     16.280000      8.806e+16
     16.290000      8.619e+16
     16.300000      8.547e+16
     16.310000      8.762e+16
     16.320000      8.889e+16
     16.330000      8.769e+16
     16.340000      8.508e+16
     16.350000      8.300e+16
     16.360000      8.154e+16
     16.370000      7.944e+16
     16.380000      7.907e+16
     16.390000      7.772e+16
     16.400000      7.540e+16
     16.410000      7.292e+16
     16.420000      7.115e+16
     16.430000      7.063e+16
     16.440000      7.529e+16
     16.450000      7.817e+16
     16.460000      7.138e+16
     16.470000      6.590e+16
     16.480000      6.463e+16
     16.490000      6.324e+16
     16.500000      6.264e+16
     16.510000      7.377e+16
     16.520000      7.307e+16
     16.530000      6.092e+16
     16.533560      6.008e+16
     16.540000      6.056e+16
     16.550000      6.257e+16
     16.560000      6.356e+16
     16.570000      6.079e+16
     16.580000      5.841e+16
     16.590000      5.777e+16
     16.600000      5.775e+16
     16.610000      5.827e+16
     16.620000      7.011e+16
     16.630000      6.946e+16
     16.640000      5.611e+16
     16.650000      5.421e+16
     16.660000      5.284e+16
     16.670000      5.176e+16
     16.680000      5.054e+16
     16.690000      5.041e+16
     16.700000      5.354e+16
     16.710000      6.597e+16
     16.720000      6.278e+16
     16.730000      4.966e+16
     16.740000      6.368e+16
     16.750000      6.392e+16
     16.760000      5.067e+16
     16.770000      4.965e+16
     16.780000      4.839e+16
     16.790000      4.865e+16
     16.800000      4.681e+16
     16.810000      4.541e+16
     16.820000      4.516e+16
     16.830000      4.493e+16
     16.840000      5.050e+16
     16.850000      5.580e+16
     16.860000      5.012e+16
     16.870000      4.445e+16
     16.880000      4.396e+16
     16.890000      4.345e+16
     16.900000      4.371e+16
     16.910000      4.345e+16
     16.920000      4.280e+16
     16.930000      4.401e+16
     16.940000      4.438e+16
     16.950000      4.330e+16
     16.960000      4.306e+16
     16.970000      4.335e+16
     16.980000      4.384e+16
     16.990000      4.358e+16
     17.000000      4.423e+16
     17.010000      4.558e+16
     17.020000      4.422e+16
     17.030000      4.778e+16
     17.040000      4.773e+16
     17.050000      4.212e+16
     17.060000      4.136e+16
     17.070000      4.158e+16
     17.080000      4.218e+16
     17.090000      4.188e+16
     17.100000      4.178e+16
     17.110000      4.100e+16
     17.120000      3.911e+16
     17.130000      3.790e+16
     17.140000      3.748e+16
     17.150000      3.757e+16
     17.160000      3.653e+16
     17.170000      3.509e+16
     17.180000      3.496e+16
     17.190000      3.492e+16
     17.200000      3.476e+16
     17.210000      3.431e+16
     17.220000      3.355e+16
     17.230000      3.364e+16
     17.240000      5.254e+16
     17.250000      5.167e+16
     17.260000      3.494e+16
     17.270000      3.492e+16
     17.280000      3.144e+16
     17.290000      3.066e+16
     17.300000      3.030e+16
     17.310000      2.988e+16
     17.320000      2.974e+16
     17.330000      2.921e+16
     17.340000      2.849e+16
     17.350000      2.845e+16
     17.360000      3.333e+16
     17.370000      3.298e+16
     17.380000      2.768e+16
     17.390000      2.719e+16
     17.400000      2.683e+16
     17.410000      2.710e+16
     17.420000      2.671e+16
     17.430000      2.592e+16
     17.440000      2.569e+16
     17.450000      2.602e+16
     17.460000      2.731e+16
     17.470000      4.696e+16
     17.480000      4.686e+16
     17.490000      2.772e+16
     17.500000      2.735e+16
     17.510000      2.691e+16
     17.513230      2.781e+16
     17.520000      2.780e+16
     17.530000      2.647e+16
     17.540000      2.570e+16
     17.550000      2.680e+16
     17.560000      3.616e+16
     17.570000      3.504e+16
     17.580000      2.648e+16
     17.590000      2.640e+16
     17.600000      2.466e+16
     17.610000      2.387e+16
     17.620000      2.404e+16
     17.630000      2.395e+16
     17.640000      2.350e+16
     17.650000      2.333e+16
     17.660000      2.423e+16
     17.670000      2.630e+16
     17.680000      2.570e+16
     17.690000      2.320e+16
     17.700000      2.855e+16
     17.710000      2.930e+16
     17.720000      2.304e+16
     17.730000      2.190e+16
     17.740000      2.185e+16
     17.750000      2.172e+16
     17.760000      2.141e+16
     17.770000      2.103e+16
     17.780000      2.050e+16
     17.790000      2.036e+16
     17.800000      2.159e+16
     17.810000      2.188e+16
     17.820000      2.019e+16
     17.830000      1.923e+16
     17.840000      1.947e+16
     17.850000      1.943e+16
     17.860000      1.862e+16
     17.870000      1.825e+16
     17.880000      1.813e+16
     17.890000      1.792e+16
     17.900000      1.842e+16
     17.910000      1.968e+16
     17.920000      1.930e+16
     17.930000      1.833e+16
     17.940000      2.237e+16
     17.950000      2.188e+16
     17.960000      1.737e+16
     17.970000      1.717e+16
     17.980000      1.712e+16
     17.990000      1.708e+16
     18.000000      1.690e+16
     18.010000      1.690e+16
     18.020000      1.716e+16
     18.030000      1.732e+16
     18.040000      1.722e+16
     18.050000      1.684e+16
     18.060000      1.643e+16
     18.070000      1.627e+16
     18.080000      1.633e+16
     18.090000      1.652e+16
     18.100000      1.637e+16
     18.110000      1.610e+16
     18.120000      1.599e+16
     18.130000      1.580e+16
     18.140000      1.560e+16
     18.150000      1.548e+16
     18.160000      1.543e+16
     18.170000      1.533e+16
     18.180000      1.525e+16
     18.190000      1.520e+16
     18.200000      1.488e+16
     18.210000      1.484e+16
     18.220000      1.485e+16
     18.230000      1.451e+16
     18.240000      1.420e+16
     18.250000      1.403e+16
     18.260000      1.500e+16
     18.270000      1.507e+16
     18.280000      1.408e+16
     18.290000      1.445e+16
     18.300000      1.424e+16
     18.310000      1.356e+16
     18.320000      1.338e+16
     18.330000      1.333e+16
     18.340000      1.327e+16
     18.350000      1.302e+16
     18.360000      1.278e+16
     18.370000      1.263e+16
     18.380000      1.257e+16
     18.390000      1.250e+16
     18.400000      1.264e+16
     18.410000      1.269e+16
     18.420000      1.255e+16
     18.430000      1.275e+16
     18.440000      1.269e+16
     18.450000      1.231e+16
     18.460000      1.218e+16
     18.470000      1.214e+16
     18.480000      1.216e+16
     18.490000      1.220e+16
     18.500000      1.221e+16
     18.510000      1.218e+16
     18.520000      1.209e+16
     18.530000      1.203e+16
     18.540000      1.212e+16
     18.550000      1.218e+16
     18.550960      1.203e+16
     18.560000      1.198e+16
     18.570000      1.202e+16
     18.580000      1.208e+16
     18.590000      1.215e+16
     18.600000      1.221e+16
     18.610000      1.209e+16
     18.620000      1.198e+16
     18.630000      1.193e+16
     18.640000      1.192e+16
     18.650000      1.189e+16
     18.660000      1.195e+16
     18.670000      1.208e+16
     18.680000      1.201e+16
     18.690000      1.182e+16
     18.700000      1.174e+16
     18.710000      1.182e+16
     18.720000      1.174e+16
     18.730000      1.162e+16
     18.740000      1.151e+16
     18.750000      1.135e+16
     18.760000      1.151e+16
     18.770000      1.151e+16
     18.780000      1.122e+16
     18.790000      1.110e+16
     18.800000      1.101e+16
     18.810000      1.276e+16
     18.820000      1.272e+16
     18.830000      1.074e+16
     18.840000      1.059e+16
     18.850000      1.047e+16
     18.860000      1.046e+16
     18.870000      1.054e+16
     18.880000      1.047e+16
     18.890000      1.028e+16
     18.900000      1.024e+16
     18.910000      1.025e+16
     18.920000      1.024e+16
     18.930000      1.020e+16
     18.940000      1.012e+16
     18.950000      1.006e+16
     18.960000      1.001e+16
     18.970000      9.976e+15
     18.980000      9.996e+15
     18.990000      9.984e+15
     19.000000      9.917e+15
     19.010000      9.905e+15
     19.020000      1.000e+16
     19.030000      1.002e+16
     19.040000      9.918e+15
     19.050000      9.877e+15
     19.060000      9.848e+15
     19.070000      9.845e+15
     19.080000      9.810e+15
     19.090000      9.721e+15
     19.100000      9.696e+15
     19.110000      9.618e+15
     19.120000      9.510e+15
     19.130000      9.440e+15
     19.140000      9.475e+15
     19.150000      9.419e+15
     19.160000      9.238e+15
     19.170000      9.114e+15
     19.180000      9.060e+15
     19.190000      9.004e+15
     19.200000      8.899e+15
     19.210000      8.826e+15
     19.220000      8.755e+15
     19.230000      8.636e+15
     19.240000      8.537e+15
     19.250000      8.489e+15
     19.260000      8.428e+15
     19.270000      8.371e+15
     19.280000      8.291e+15
     19.290000      8.217e+15
     19.300000      8.220e+15
     19.310000      8.153e+15
     19.320000      7.984e+15
     19.330000      7.829e+15
     19.340000      7.693e+15
     19.350000      7.578e+15
     19.360000      7.513e+15
     19.370000      7.406e+15
     19.380000      7.289e+15
     19.390000      7.235e+15
     19.400000      7.192e+15
     19.410000      7.103e+15
     19.420000      7.077e+15
     19.430000      7.092e+15
     19.440000      6.893e+15
     19.450000      6.721e+15
     19.460000      6.597e+15
     19.470000      6.524e+15
     19.480000      6.472e+15
     19.490000      6.422e+15
     19.500000      6.423e+15
     19.510000      6.404e+15
     19.520000      6.466e+15
     19.530000      6.458e+15
     19.540000      6.284e+15
     19.550000      6.167e+15
     19.560000      6.096e+15
     19.570000      6.197e+15
     19.580000      6.300e+15
     19.590000      6.156e+15
     19.600000      5.969e+15
     19.610000      5.999e+15
     19.620000      6.222e+15
     19.630000      6.225e+15
     19.640000      6.041e+15
     19.650000      5.973e+15
     19.650170      6.146e+15
     19.660000      5.942e+15
     19.670000      5.798e+15
     19.680000      5.796e+15
     19.690000      5.686e+15
     19.700000      5.613e+15
     19.710000      5.606e+15
     19.720000      5.549e+15
     19.730000      5.456e+15
     19.740000      5.436e+15
     19.750000      5.404e+15
     19.760000      5.393e+15
     19.770000      5.392e+15
     19.780000      5.344e+15
     19.790000      5.358e+15
     19.800000      5.354e+15
     19.810000      5.386e+15
     19.820000      5.354e+15
     19.830000      5.250e+15
     19.840000      5.251e+15
     19.850000      5.248e+15
     19.860000      5.247e+15
     19.870000      5.277e+15
     19.880000      5.338e+15
     19.890000      5.451e+15
     19.900000      5.404e+15
     19.910000      5.226e+15
     19.920000      5.169e+15
     19.930000      5.181e+15
     19.940000      5.231e+15
     19.950000      5.335e+15
     19.960000      5.366e+15
     19.970000      5.493e+15
     19.980000      5.629e+15
     19.990000      5.591e+15
     20.000000      5.958e+15

